Frequency (Hz)	Level (dB)
46.875000	-64.649208
93.750000	-74.105988
140.625000	-80.796242
187.500000	-83.879707
234.375000	-83.576088
281.250000	-81.303185
328.125000	-82.290329
375.000000	-82.681740
421.875000	-80.937683
468.750000	-79.369560
515.625000	-78.466301
562.500000	-79.156731
609.375000	-79.671387
656.250000	-79.313873
703.125000	-80.082733
750.000000	-81.830536
796.875000	-81.535500
843.750000	-80.894066
890.625000	-78.421692
937.500000	-77.834000
984.375000	-78.227577
1031.250000	-80.063248
1078.125000	-80.126495
1125.000000	-81.572327
1171.875000	-81.377693
1218.750000	-81.069138
1265.625000	-80.476166
1312.500000	-81.044357
1359.375000	-79.867432
1406.250000	-79.496635
1453.125000	-80.183487
1500.000000	-80.890503
1546.875000	-81.540611
1593.750000	-82.128487
1640.625000	-82.579987
1687.500000	-82.761978
1734.375000	-82.789146
1781.250000	-82.719009
1828.125000	-82.887871
1875.000000	-82.758698
1921.875000	-81.707085
1968.750000	-82.323166
2015.625000	-83.562073
2062.500000	-84.383347
2109.375000	-84.591232
2156.250000	-85.224098
2203.125000	-85.252960
2250.000000	-84.378044
2296.875000	-84.273849
2343.750000	-83.602928
2390.625000	-84.227737
2437.500000	-84.868065
2484.375000	-85.422241
2531.250000	-85.411674
2578.125000	-85.412086
2625.000000	-85.036232
2671.875000	-85.076492
2718.750000	-85.769760
2765.625000	-85.874939
2812.500000	-86.087227
2859.375000	-85.365097
2906.250000	-85.457123
2953.125000	-86.912453
3000.000000	-87.456856
3046.875000	-87.241997
3093.750000	-87.173424
3140.625000	-87.144287
3187.500000	-86.526123
3234.375000	-86.623802
3281.250000	-87.088715
3328.125000	-86.029305
3375.000000	-87.701584
3421.875000	-88.002434
3468.750000	-87.851105
3515.625000	-88.312462
3562.500000	-88.228004
3609.375000	-85.085297
3656.250000	-84.304909
3703.125000	-86.446365
3750.000000	-87.167717
3796.875000	-87.194122
3843.750000	-88.006897
3890.625000	-88.322113
3937.500000	-88.230461
3984.375000	-87.527740
4031.250000	-88.434601
4078.125000	-88.630531
4125.000000	-88.577629
4171.875000	-89.241791
4218.750000	-89.617302
4265.625000	-89.306953
4312.500000	-89.043175
4359.375000	-89.207581
4406.250000	-89.210335
4453.125000	-89.107887
4500.000000	-89.024864
4546.875000	-89.216530
4593.750000	-89.212936
4640.625000	-89.113922
4687.500000	-89.612724
4734.375000	-89.925827
4781.250000	-90.390984
4828.125000	-90.948387
4875.000000	-90.532463
4921.875000	-90.282059
4968.750000	-90.665482
5015.625000	-90.619583
5062.500000	-90.984734
5109.375000	-90.706985
5156.250000	-90.874847
5203.125000	-90.851761
5250.000000	-90.767128
5296.875000	-91.033340
5343.750000	-91.346931
5390.625000	-90.936974
5437.500000	-91.158028
5484.375000	-90.488220
5531.250000	-90.791855
5578.125000	-91.127762
5625.000000	-90.550041
5671.875000	-90.829781
5718.750000	-91.240204
5765.625000	-91.769157
5812.500000	-91.657097
5859.375000	-91.349068
5906.250000	-91.293869
5953.125000	-91.190460
6000.000000	-91.009621
6046.875000	-90.362579
6093.750000	-91.034630
6140.625000	-91.673828
6187.500000	-91.910812
6234.375000	-92.174774
6281.250000	-91.993179
6328.125000	-91.670212
6375.000000	-91.869751
6421.875000	-91.679535
6468.750000	-91.822639
6515.625000	-92.123085
6562.500000	-92.495331
6609.375000	-92.466240
6656.250000	-92.421585
6703.125000	-92.403984
6750.000000	-92.361664
6796.875000	-92.562553
6843.750000	-92.829346
6890.625000	-92.697617
6937.500000	-92.665207
6984.375000	-92.522346
7031.250000	-92.130989
7078.125000	-92.216911
7125.000000	-92.323715
7171.875000	-92.446465
7218.750000	-92.781204
7265.625000	-92.164436
7312.500000	-92.213013
7359.375000	-92.271141
7406.250000	-92.430931
7453.125000	-92.348106
7500.000000	-92.511864
7546.875000	-92.681969
7593.750000	-92.681427
7640.625000	-92.986389
7687.500000	-92.987160
7734.375000	-92.870285
7781.250000	-92.966286
7828.125000	-93.212738
7875.000000	-93.079330
7921.875000	-93.052902
7968.750000	-92.598808
8015.625000	-92.052483
8062.500000	-92.301361
8109.375000	-92.724747
8156.250000	-92.911644
8203.125000	-93.014709
8250.000000	-93.114716
8296.875000	-93.105125
8343.750000	-92.820038
8390.625000	-93.051521
8437.500000	-92.699860
8484.375000	-92.876289
8531.250000	-93.164909
8578.125000	-92.965370
8625.000000	-92.788567
8671.875000	-92.758583
8718.750000	-92.647614
8765.625000	-92.829987
8812.500000	-92.602951
8859.375000	-92.609238
8906.250000	-93.057251
8953.125000	-92.997772
9000.000000	-92.935318
9046.875000	-92.884659
9093.750000	-92.632256
9140.625000	-92.355644
9187.500000	-92.541115
9234.375000	-92.596100
9281.250000	-92.378571
9328.125000	-92.558144
9375.000000	-92.696770
9421.875000	-92.758232
9468.750000	-93.202293
9515.625000	-93.434853
9562.500000	-92.825012
9609.375000	-92.768585
9656.250000	-93.122017
9703.125000	-93.385300
9750.000000	-93.119751
9796.875000	-93.161644
9843.750000	-93.215591
9890.625000	-93.595924
9937.500000	-93.201454
9984.375000	-93.241043
10031.250000	-93.571754
10078.125000	-93.359406
10125.000000	-93.153854
10171.875000	-93.375603
10218.750000	-93.150146
10265.625000	-93.079071
10312.500000	-93.399414
10359.375000	-93.496651
10406.250000	-93.414818
10453.125000	-93.444725
10500.000000	-93.321312
10546.875000	-93.124092
10593.750000	-93.273888
10640.625000	-93.389168
10687.500000	-93.046822
10734.375000	-92.937851
10781.250000	-92.865593
10828.125000	-92.876541
10875.000000	-93.304367
10921.875000	-93.266739
10968.750000	-92.996803
11015.625000	-92.986343
11062.500000	-92.612495
11109.375000	-92.438492
11156.250000	-92.636147
11203.125000	-92.774635
11250.000000	-92.891243
11296.875000	-93.011353
11343.750000	-93.333122
11390.625000	-93.189713
11437.500000	-92.792305
11484.375000	-92.669014
11531.250000	-93.175682
11578.125000	-93.000282
11625.000000	-92.782059
11671.875000	-92.978920
11718.750000	-93.148674
11765.625000	-93.179222
11812.500000	-92.895378
11859.375000	-92.954506
11906.250000	-93.119591
11953.125000	-93.576271
12000.000000	-93.374771
12046.875000	-93.828850
12093.750000	-93.871582
12140.625000	-93.788300
12187.500000	-93.742981
12234.375000	-93.525208
12281.250000	-93.398003
12328.125000	-93.463219
12375.000000	-93.442825
12421.875000	-93.788902
12468.750000	-93.817627
12515.625000	-93.604172
12562.500000	-93.385147
12609.375000	-93.601089
12656.250000	-93.444717
12703.125000	-93.123894
12750.000000	-93.613037
12796.875000	-93.871880
12843.750000	-93.339302
12890.625000	-93.229301
12937.500000	-93.236206
12984.375000	-93.687080
13031.250000	-94.011765
13078.125000	-94.032837
13125.000000	-94.316704
13171.875000	-93.881210
13218.750000	-93.637726
13265.625000	-93.405136
13312.500000	-93.688065
13359.375000	-93.677284
13406.250000	-93.539169
13453.125000	-93.479813
13500.000000	-93.505249
13546.875000	-93.572708
13593.750000	-93.835655
13640.625000	-93.931282
13687.500000	-93.662315
13734.375000	-93.559067
13781.250000	-93.908104
13828.125000	-93.727669
13875.000000	-93.589348
13921.875000	-93.797958
13968.750000	-94.141045
14015.625000	-94.148338
14062.500000	-93.955452
14109.375000	-93.607498
14156.250000	-93.481232
14203.125000	-93.774529
14250.000000	-94.115456
14296.875000	-93.715630
14343.750000	-93.604370
14390.625000	-93.262039
14437.500000	-93.557930
14484.375000	-93.745575
14531.250000	-93.559166
14578.125000	-93.855560
14625.000000	-94.235771
14671.875000	-93.989861
14718.750000	-93.674904
14765.625000	-94.012688
14812.500000	-93.772797
14859.375000	-94.086731
14906.250000	-94.040344
14953.125000	-93.855240
15000.000000	-93.881050
15046.875000	-93.594345
15093.750000	-93.228836
15140.625000	-93.407181
15187.500000	-94.262177
15234.375000	-94.250153
15281.250000	-94.147011
15328.125000	-93.909203
15375.000000	-93.279381
15421.875000	-93.710655
15468.750000	-93.789619
15515.625000	-93.563362
15562.500000	-93.783875
15609.375000	-93.702507
15656.250000	-93.612076
15703.125000	-93.734642
15750.000000	-93.862946
15796.875000	-93.909050
15843.750000	-93.820129
15890.625000	-93.684196
15937.500000	-93.644600
15984.375000	-94.243439
16031.250000	-94.149727
16078.125000	-93.912605
16125.000000	-94.046501
16171.875000	-93.804230
16218.750000	-93.626678
16265.625000	-94.083771
16312.500000	-94.497513
16359.375000	-94.199097
16406.250000	-94.219963
16453.125000	-94.068710
16500.000000	-93.625801
16546.875000	-93.629715
16593.750000	-93.644753
16640.625000	-93.828224
16687.500000	-93.937805
16734.375000	-93.702209
16781.250000	-93.872147
16828.125000	-94.265816
16875.000000	-93.964752
16921.875000	-93.702347
16968.750000	-93.457954
17015.625000	-93.536972
17062.500000	-93.932892
17109.375000	-94.137695
17156.250000	-93.928680
17203.125000	-93.636009
17250.000000	-93.741196
17296.875000	-93.816994
17343.750000	-93.717278
17390.625000	-93.887978
17437.500000	-94.059166
17484.375000	-94.203468
17531.250000	-94.185143
17578.125000	-94.147514
17625.000000	-93.862801
17671.875000	-94.219551
17718.750000	-94.724892
17765.625000	-94.323441
17812.500000	-94.085999
17859.375000	-93.682358
17906.250000	-93.398491
17953.125000	-94.125679
18000.000000	-94.267570
18046.875000	-93.889122
18093.750000	-93.968559
18140.625000	-94.191437
18187.500000	-94.215172
18234.375000	-94.512611
18281.250000	-94.553108
18328.125000	-94.580284
18375.000000	-94.567543
18421.875000	-94.304703
18468.750000	-94.272453
18515.625000	-93.761261
18562.500000	-93.499290
18609.375000	-93.835274
18656.250000	-93.898956
18703.125000	-94.230690
18750.000000	-94.224068
18796.875000	-94.120621
18843.750000	-94.029175
18890.625000	-93.700386
18937.500000	-93.747498
18984.375000	-94.097511
19031.250000	-94.020111
19078.125000	-93.888023
19125.000000	-94.167603
19171.875000	-94.409454
19218.750000	-93.876648
19265.625000	-94.078835
19312.500000	-93.939667
19359.375000	-93.781265
19406.250000	-94.199455
19453.125000	-94.001900
19500.000000	-94.045685
19546.875000	-94.256218
19593.750000	-94.289314
19640.625000	-94.456924
19687.500000	-94.259995
19734.375000	-94.106606
19781.250000	-94.558685
19828.125000	-94.145630
19875.000000	-93.472923
19921.875000	-93.908966
19968.750000	-93.990929
20015.625000	-93.761414
20062.500000	-93.832504
20109.375000	-94.032387
20156.250000	-94.384865
20203.125000	-94.263405
20250.000000	-94.008911
20296.875000	-94.013107
20343.750000	-94.049873
20390.625000	-94.156273
20437.500000	-94.117088
20484.375000	-94.090324
20531.250000	-94.464478
20578.125000	-94.401306
20625.000000	-94.296486
20671.875000	-94.050194
20718.750000	-94.247215
20765.625000	-94.112640
20812.500000	-93.995461
20859.375000	-93.843590
20906.250000	-94.018021
20953.125000	-94.166443
21000.000000	-94.029907
21046.875000	-93.877579
21093.750000	-93.829071
21140.625000	-94.182961
21187.500000	-94.183006
21234.375000	-94.025337
21281.250000	-94.364426
21328.125000	-94.270325
21375.000000	-94.273163
21421.875000	-94.300285
21468.750000	-94.092804
21515.625000	-94.350945
21562.500000	-94.069214
21609.375000	-93.738419
21656.250000	-93.896095
21703.125000	-94.104393
21750.000000	-94.320107
21796.875000	-94.145477
21843.750000	-94.075760
21890.625000	-93.961472
21937.500000	-94.027466
21984.375000	-94.082542
22031.250000	-94.243172
22078.125000	-93.949577
22125.000000	-94.543694
22171.875000	-93.912155
22218.750000	-93.507149
22265.625000	-93.997856
22312.500000	-94.328300
22359.375000	-94.391914
22406.250000	-94.369644
22453.125000	-94.520279
22500.000000	-94.221436
22546.875000	-94.284111
22593.750000	-94.459091
22640.625000	-94.969315
22687.500000	-94.821686
22734.375000	-94.695312
22781.250000	-94.980682
22828.125000	-95.056335
22875.000000	-95.020386
22921.875000	-94.906906
22968.750000	-94.852814
23015.625000	-94.942505
23062.500000	-94.545868
23109.375000	-94.938362
23156.250000	-95.469910
23203.125000	-95.431274
23250.000000	-95.705025
23296.875000	-95.748253
23343.750000	-96.015541
23390.625000	-96.853752
23437.500000	-97.073975
23484.375000	-96.516983
23531.250000	-96.600777
23578.125000	-96.386581
23625.000000	-96.721039
23671.875000	-96.756767
23718.750000	-96.933922
23765.625000	-97.208588
23812.500000	-96.937737
23859.375000	-97.437164
23906.250000	-97.357666
23953.125000	-97.325035
